Channel			  :,CH1
Frequency			  :,F=  ?
Period 			  :,T=  ?
PK-PK				  :,Vpp=2.000V
Average			  :,V=-514.7mV
Vertical pos		  :,0.00mV
Probe attenuation	  :,10X
Voltage per ADC value:,200.00mV
Time interval		  :,8000.00uS

index,CH1_Voltage(mV)
0,800.00
1,800.00
2,800.00
3,800.00
4,1000.00
5,600.00
6,800.00
7,800.00
8,800.00
9,1000.00
10,800.00
11,800.00
12,800.00
13,800.00
14,800.00
15,800.00
16,800.00
17,1000.00
18,800.00
19,1000.00
20,600.00
21,800.00
22,800.00
23,800.00
24,800.00
25,600.00
26,800.00
27,800.00
28,1000.00
29,800.00
30,600.00
31,800.00
32,800.00
33,800.00
34,1000.00
35,800.00
36,800.00
37,800.00
38,800.00
39,1000.00
40,800.00
41,800.00
42,800.00
43,800.00
44,1000.00
45,800.00
46,800.00
47,800.00
48,800.00
49,1000.00
50,600.00
51,800.00
52,800.00
53,800.00
54,1000.00
55,800.00
56,800.00
57,800.00
58,600.00
59,1000.00
60,800.00
61,1000.00
62,1000.00
63,800.00
64,800.00
65,600.00
66,800.00
67,800.00
68,800.00
69,800.00
70,800.00
71,800.00
72,800.00
73,800.00
74,800.00
75,800.00
76,1000.00
77,800.00
78,800.00
79,800.00
80,600.00
81,1000.00
82,800.00
83,800.00
84,1000.00
85,800.00
86,1000.00
87,600.00
88,800.00
89,800.00
90,800.00
91,800.00
92,1000.00
93,800.00
94,1000.00
95,800.00
96,800.00
97,800.00
98,600.00
99,800.00
100,600.00
101,800.00
102,800.00
103,600.00
104,1000.00
105,800.00
106,800.00
107,1000.00
108,800.00
109,800.00
110,1000.00
111,1000.00
112,800.00
113,800.00
114,1000.00
115,800.00
116,1000.00
117,800.00
118,800.00
119,800.00
120,800.00
121,800.00
122,800.00
123,800.00
124,1000.00
125,600.00
126,800.00
127,1000.00
128,800.00
129,1000.00
130,800.00
131,1000.00
132,1000.00
133,800.00
134,800.00
135,800.00
136,1000.00
137,800.00
138,600.00
139,800.00
140,800.00
141,800.00
142,800.00
143,800.00
144,1000.00
145,800.00
146,1000.00
147,800.00
148,600.00
149,800.00
150,800.00
151,800.00
152,800.00
153,800.00
154,800.00
155,800.00
156,1000.00
157,800.00
158,800.00
159,800.00
160,800.00
161,800.00
162,800.00
163,600.00
164,800.00
165,800.00
166,600.00
167,800.00
168,600.00
169,800.00
170,600.00
171,800.00
172,600.00
173,800.00
174,800.00
175,600.00
176,600.00
177,800.00
178,600.00
179,800.00
180,600.00
181,800.00
182,800.00
183,600.00
184,800.00
185,800.00
186,600.00
187,600.00
188,600.00
189,600.00
190,600.00
191,800.00
192,800.00
193,800.00
194,600.00
195,400.00
196,600.00
197,600.00
198,800.00
199,600.00
200,600.00
201,600.00
202,800.00
203,600.00
204,600.00
205,600.00
206,600.00
207,600.00
208,600.00
209,600.00
210,600.00
211,600.00
212,400.00
213,200.00
214,600.00
215,600.00
216,400.00
217,400.00
218,600.00
219,400.00
220,600.00
221,600.00
222,200.00
223,200.00
224,400.00
225,600.00
226,200.00
227,400.00
228,400.00
229,600.00
230,200.00
231,600.00
232,400.00
233,400.00
234,400.00
235,400.00
236,200.00
237,400.00
238,200.00
239,200.00
240,400.00
241,200.00
242,400.00
243,400.00
244,400.00
245,400.00
246,400.00
247,-6000.00
248,-3000.00
249,-2600.00
250,-2600.00
251,-2400.00
252,-2600.00
253,-2600.00
254,-2400.00
255,-2600.00
256,-2400.00
257,-2400.00
258,-2400.00
259,-2400.00
260,-2600.00
261,-2400.00
262,-2400.00
263,-2400.00
264,-2400.00
265,-2400.00
266,-2400.00
267,-2400.00
268,-2400.00
269,-2200.00
270,-2600.00
271,-2200.00
272,-2400.00
273,-2400.00
274,-2200.00
275,-2600.00
276,-2200.00
277,-2400.00
278,-2400.00
279,-2200.00
280,-2400.00
281,-2200.00
282,-2400.00
283,-2200.00
284,-2200.00
285,-2400.00
286,-2000.00
287,-2200.00
288,-2200.00
289,-2200.00
290,-2400.00
291,-2000.00
292,-2200.00
293,-2200.00
294,-2000.00
295,-2400.00
296,-2000.00
297,-2200.00
298,-2200.00
299,-2000.00
300,-2200.00
301,-2000.00
302,-2200.00
303,-2200.00
304,-2000.00
305,-2200.00
306,-2000.00
307,-2000.00
308,-2200.00
309,-1800.00
310,-2200.00
311,-2000.00
312,-2200.00
313,-2000.00
314,-1800.00
315,-2200.00
316,-2000.00
317,-2000.00
318,-2000.00
319,-1800.00
320,-2000.00
321,-1800.00
322,-2000.00
323,-2000.00
324,-1800.00
325,-2000.00
326,-1800.00
327,-1800.00
328,-2000.00
329,-1800.00
330,-2200.00
331,-1800.00
332,-2000.00
333,-1800.00
334,-1800.00
335,-2000.00
336,-1800.00
337,-1800.00
338,-1800.00
339,-1800.00
340,-2000.00
341,-1600.00
342,-1800.00
343,-1800.00
344,-1800.00
345,-1800.00
346,-1800.00
347,-1800.00
348,-1800.00
349,-1600.00
350,-2000.00
351,-1600.00
352,-1800.00
353,-1800.00
354,-1800.00
355,-1800.00
356,-1600.00
357,-1800.00
358,-1800.00
359,-1600.00
360,-1800.00
361,-1600.00
362,-1800.00
363,-1800.00
364,-1600.00
365,-1800.00
366,-1600.00
367,-1800.00
368,-1600.00
369,-1600.00
370,-1800.00
371,-1400.00
372,-1600.00
373,-1600.00
374,-1400.00
375,-1800.00
376,-1600.00
377,-1600.00
378,-1600.00
379,-1600.00
380,-1800.00
381,-1600.00
382,-1600.00
383,-1600.00
384,-1400.00
385,-1800.00
386,-1600.00
387,-1800.00
388,-1600.00
389,-1600.00
390,-1600.00
391,-1400.00
392,-1600.00
393,-1600.00
394,-1400.00
395,-1600.00
396,-1400.00
397,-1600.00
398,-1600.00
399,-1400.00
400,-1600.00
401,-1400.00
402,-1600.00
403,-1600.00
404,-3000.00
405,-1800.00
406,-800.00
407,0.00
408,200.00
409,600.00
410,800.00
411,800.00
412,800.00
413,800.00
414,1000.00
415,1000.00
416,800.00
417,1000.00
418,1000.00
419,1000.00
420,1000.00
421,1000.00
422,1000.00
423,800.00
424,1000.00
425,800.00
426,1200.00
427,1000.00
428,1000.00
429,1000.00
430,1000.00
431,1000.00
432,800.00
433,800.00
434,1000.00
435,800.00
436,800.00
437,800.00
438,1000.00
439,1000.00
440,800.00
441,1000.00
442,1000.00
443,800.00
444,1000.00
445,800.00
446,1000.00
447,1000.00
448,800.00
449,1000.00
450,1000.00
451,1000.00
452,1000.00
453,800.00
454,1000.00
455,1000.00
456,800.00
457,1000.00
458,800.00
459,1000.00
460,1000.00
461,1000.00
462,800.00
463,1000.00
464,1000.00
465,1000.00
466,1000.00
467,1000.00
468,1000.00
469,1000.00
470,800.00
471,1000.00
472,800.00
473,1000.00
474,1000.00
475,800.00
476,1000.00
477,1000.00
478,1000.00
479,1000.00
480,800.00
481,1000.00
482,1000.00
483,800.00
484,1000.00
485,800.00
486,1000.00
487,1000.00
488,800.00
489,1000.00
490,800.00
491,1000.00
492,1000.00
493,800.00
494,1200.00
495,1000.00
496,1000.00
497,800.00
498,800.00
499,1000.00
500,1000.00
501,1000.00
502,1000.00
503,800.00
504,1000.00
505,1000.00
506,1000.00
507,1000.00
508,1000.00
509,1200.00
510,1000.00
511,1000.00
512,1000.00
513,800.00
514,1000.00
515,800.00
516,800.00
517,1000.00
518,800.00
519,1000.00
520,1000.00
521,1000.00
522,1000.00
523,800.00
524,1200.00
525,1000.00
526,800.00
527,800.00
528,1000.00
529,800.00
530,1000.00
531,1000.00
532,1000.00
533,800.00
534,1000.00
535,1000.00
536,1000.00
537,1000.00
538,1000.00
539,1000.00
540,800.00
541,1000.00
542,1000.00
543,1000.00
544,1000.00
545,1000.00
546,800.00
547,1000.00
548,800.00
549,1000.00
550,800.00
551,1000.00
552,1000.00
553,800.00
554,800.00
555,800.00
556,1000.00
557,1000.00
558,800.00
559,1000.00
560,800.00
561,1000.00
562,1000.00
563,1000.00
564,1000.00
565,800.00
566,800.00
567,1000.00
568,1000.00
569,800.00
570,1000.00
571,1000.00
572,800.00
573,800.00
574,1000.00
575,1000.00
576,1000.00
577,1000.00
578,800.00
579,1000.00
580,1000.00
581,1000.00
582,800.00
583,1000.00
584,1000.00
585,800.00
586,800.00
587,1000.00
588,1000.00
589,1000.00
590,1000.00
591,1000.00
592,1000.00
593,800.00
594,1000.00
595,800.00
596,800.00
597,1000.00
598,1000.00
599,1000.00
600,800.00
601,600.00
602,1000.00
603,800.00
604,1000.00
605,800.00
606,800.00
607,800.00
608,800.00
609,800.00
610,800.00
611,600.00
612,800.00
613,800.00
614,800.00
615,800.00
616,800.00
617,800.00
618,800.00
619,800.00
620,800.00
621,800.00
622,600.00
623,800.00
624,600.00
625,600.00
626,600.00
627,600.00
628,600.00
629,600.00
630,800.00
631,800.00
632,600.00
633,600.00
634,600.00
635,800.00
636,600.00
637,600.00
638,-3200.00
639,-2400.00
640,-2400.00
641,-2400.00
642,-2200.00
643,-2600.00
644,-2400.00
645,-2400.00
646,-2400.00
647,-2200.00
648,-2400.00
649,-2200.00
650,-2200.00
651,-2400.00
652,-2200.00
653,-2400.00
654,-2200.00
655,-2200.00
656,-2200.00
657,-2000.00
658,-2200.00
659,-2000.00
660,-2200.00
661,-2400.00
662,-2000.00
663,-2200.00
664,-2000.00
665,-2200.00
666,-2200.00
667,-2000.00
668,-2200.00
669,-2000.00
670,-2000.00
671,-2200.00
672,-2000.00
673,-2200.00
674,-2000.00
675,-2000.00
676,-2200.00
677,-2000.00
678,-2000.00
679,-2200.00
680,-2000.00
681,-2000.00
682,-1800.00
683,-2000.00
684,-2000.00
685,-2000.00
686,-2200.00
687,-1800.00
688,-2200.00
689,-1800.00
690,-2000.00
691,-2000.00
692,-1800.00
693,-2000.00
694,-1800.00
695,-2000.00
696,-2000.00
697,-1800.00
698,-2200.00
699,-1800.00
700,-1800.00
701,-1800.00
702,-1800.00
703,-2000.00
704,-1600.00
705,-1800.00
706,-2200.00
707,-1600.00
708,-1800.00
709,-1600.00
710,-1800.00
711,-2000.00
712,-1800.00
713,-2000.00
714,-1800.00
715,-1800.00
716,-1800.00
717,-1800.00
718,-2000.00
719,-1600.00
720,-1800.00
721,-1800.00
722,-1600.00
723,-2000.00
724,-1600.00
725,-1800.00
726,-1800.00
727,-1600.00
728,-1800.00
729,-1600.00
730,-1800.00
731,-1800.00
732,-1600.00
733,-1800.00
734,-1600.00
735,-1600.00
736,-1800.00
737,-1600.00
738,-1800.00
739,-1600.00
740,-1600.00
741,-1800.00
742,-1600.00
743,-1800.00
744,-1600.00
745,-1600.00
746,-1600.00
747,-1600.00
748,-1600.00
749,-1600.00
750,-1600.00
751,-1600.00
752,-1600.00
753,-1800.00
754,-1600.00
755,-1600.00
756,-1600.00
757,-1400.00
758,-1800.00
759,-1600.00
760,-1400.00
761,-1800.00
762,-1400.00
763,-1600.00
764,-1400.00
765,-1600.00
766,-1600.00
767,-1400.00
768,-1600.00
769,-1600.00
770,-1400.00
771,-1600.00
772,-1400.00
773,-1600.00
774,-1400.00
775,-1400.00
776,-1600.00
777,-1200.00
778,-1600.00
779,-1400.00
780,-1400.00
781,-1600.00
782,-1400.00
783,-1600.00
784,-1400.00
785,-1400.00
786,-1600.00
787,-1200.00
788,-1400.00
789,-1400.00
790,-1400.00
791,-1600.00
792,-1400.00
793,-3000.00
794,-1800.00
795,-800.00
796,-600.00
797,200.00
798,200.00
799,600.00
800,800.00
801,800.00
802,1000.00
803,1000.00
804,1000.00
805,1000.00
806,1000.00
807,1000.00
808,1000.00
809,1200.00
810,1000.00
811,1000.00
812,1000.00
813,1000.00
814,1000.00
815,1200.00
816,1000.00
817,1000.00
818,1000.00
819,1000.00
820,1200.00
821,1000.00
822,1200.00
823,1000.00
824,1000.00
825,1200.00
826,800.00
827,800.00
828,1000.00
829,1000.00
830,1200.00
831,1000.00
832,1200.00
833,1000.00
834,800.00
835,1200.00
836,800.00
837,1000.00
838,1000.00
839,1000.00
840,1000.00
841,1000.00
842,1000.00
843,1000.00
844,1000.00
845,1000.00
846,1000.00
847,1000.00
848,1000.00
849,1000.00
850,1000.00
851,1000.00
852,1000.00
853,1000.00
854,1000.00
855,1200.00
856,1000.00
857,1000.00
858,1000.00
859,1000.00
860,1000.00
861,800.00
862,1200.00
863,800.00
864,1200.00
865,1200.00
866,1000.00
867,1200.00
868,1000.00
869,1000.00
870,1000.00
871,800.00
872,1000.00
873,1000.00
874,1000.00
875,1000.00
876,1000.00
877,1200.00
878,1000.00
879,800.00
880,1000.00
881,1000.00
882,1200.00
883,1000.00
884,1000.00
885,1200.00
886,800.00
887,1000.00
888,1000.00
889,1000.00
890,1000.00
891,1000.00
892,1000.00
893,1000.00
894,800.00
895,1000.00
896,800.00
897,1000.00
898,1000.00
899,1000.00
900,1200.00
901,800.00
902,1000.00
903,1000.00
904,1000.00
905,1000.00
906,1000.00
907,1000.00
908,1000.00
909,1000.00
910,1000.00
911,1000.00
912,1000.00
913,1000.00
914,800.00
915,1200.00
916,1000.00
917,1000.00
918,1000.00
919,800.00
920,1000.00
921,1000.00
922,1000.00
923,1000.00
924,1000.00
925,1000.00
926,800.00
927,1000.00
928,1000.00
929,1000.00
930,1200.00
931,1000.00
932,1000.00
933,1000.00
934,800.00
935,1000.00
936,1000.00
937,1000.00
938,1000.00
939,1000.00
940,1000.00
941,800.00
942,1200.00
943,800.00
944,1000.00
945,1000.00
946,1000.00
947,1000.00
948,1000.00
949,800.00
950,1000.00
951,1000.00
952,1000.00
953,1000.00
954,1000.00
955,1200.00
956,1000.00
957,1000.00
958,1000.00
959,800.00
960,1000.00
961,1000.00
962,1000.00
963,1000.00
964,800.00
965,1000.00
966,800.00
967,1000.00
968,1000.00
969,1000.00
970,1200.00
971,800.00
972,1000.00
973,1000.00
974,1000.00
975,1000.00
976,1000.00
977,1000.00
978,1000.00
979,1000.00
980,800.00
981,1000.00
982,1000.00
983,800.00
984,800.00
985,800.00
986,800.00
987,1000.00
988,1000.00
989,800.00
990,1000.00
991,800.00
992,1000.00
993,800.00
994,1000.00
995,800.00
996,800.00
997,800.00
998,800.00
999,800.00
1000,800.00
1001,800.00
1002,800.00
1003,800.00
1004,800.00
1005,800.00
1006,600.00
1007,800.00
1008,800.00
1009,800.00
1010,600.00
1011,800.00
1012,800.00
1013,600.00
1014,800.00
1015,600.00
1016,800.00
1017,600.00
1018,600.00
1019,600.00
1020,600.00
1021,800.00
1022,800.00
1023,800.00
1024,600.00
1025,600.00
1026,800.00
1027,800.00
1028,600.00
1029,-3400.00
1030,-2400.00
1031,-2400.00
1032,-2200.00
1033,-2400.00
1034,-2400.00
1035,-2200.00
1036,-2600.00
1037,-2000.00
1038,-2400.00
1039,-2400.00
1040,-2200.00
1041,-2400.00
1042,-2000.00
1043,-2400.00
1044,-2400.00
1045,-2200.00
1046,-2400.00
1047,-2000.00
1048,-2200.00
1049,-2200.00
1050,-2200.00
1051,-2400.00
1052,-2000.00
1053,-2200.00
1054,-2200.00
1055,-2000.00
1056,-2400.00
1057,-2000.00
1058,-2200.00
1059,-2200.00
1060,-2000.00
1061,-2200.00
1062,-2000.00
1063,-2200.00
1064,-2000.00
1065,-2000.00
1066,-2200.00
1067,-2000.00
1068,-2200.00
1069,-2000.00
1070,-1800.00
1071,-2200.00
1072,-2000.00
1073,-2200.00
1074,-2000.00
1075,-2000.00
1076,-2200.00
1077,-1800.00
1078,-2000.00
1079,-1800.00
1080,-1800.00
1081,-2000.00
1082,-1800.00
1083,-2000.00
1084,-1800.00
1085,-1800.00
1086,-2000.00
1087,-1800.00
1088,-1800.00
1089,-1800.00
1090,-1800.00
1091,-2000.00
1092,-1800.00
1093,-2000.00
1094,-2000.00
1095,-1800.00
1096,-2000.00
1097,-1800.00
1098,-1800.00
1099,-1800.00
1100,-1600.00
1101,-2000.00
1102,-1800.00
1103,-1800.00
1104,-1800.00
1105,-1600.00
1106,-1800.00
1107,-1600.00
1108,-1800.00
1109,-1800.00
1110,-1800.00
1111,-1800.00
1112,-1600.00
1113,-2000.00
1114,-1800.00
1115,-1600.00
1116,-2000.00
1117,-1400.00
1118,-1800.00
1119,-1800.00
1120,-1600.00
1121,-1800.00
1122,-1600.00
1123,-1800.00
1124,-1600.00
1125,-1600.00
1126,-1800.00
1127,-1600.00
1128,-1800.00
1129,-1800.00
1130,-1600.00
1131,-1800.00
1132,-1600.00
1133,-1600.00
1134,-1600.00
1135,-1600.00
1136,-1800.00
1137,-1400.00
1138,-1800.00
1139,-1600.00
1140,-1600.00
1141,-1800.00
1142,-1600.00
1143,-1600.00
1144,-1600.00
1145,-1600.00
1146,-1600.00
1147,-1400.00
1148,-1600.00
1149,-1600.00
1150,-1600.00
1151,-1800.00
1152,-1400.00
1153,-1600.00
1154,-1600.00
1155,-1400.00
1156,-1600.00
1157,-1400.00
1158,-1600.00
1159,-1600.00
1160,-1600.00
1161,-1600.00
1162,-1400.00
1163,-1600.00
1164,-1600.00
1165,-1400.00
1166,-1600.00
1167,-1200.00
1168,-1600.00
1169,-1600.00
1170,-1400.00
1171,-1600.00
1172,-1200.00
1173,-1600.00
1174,-1400.00
1175,-1400.00
1176,-1400.00
1177,-1200.00
1178,-1600.00
1179,-1400.00
1180,-1400.00
1181,-1600.00
1182,-1200.00
1183,-1400.00
1184,-1400.00
1185,-1200.00
1186,-1400.00
1187,-1200.00
1188,-1600.00
1189,-1400.00
1190,-1400.00
1191,-1600.00
1192,-1200.00
1193,-3000.00
1194,-1600.00
1195,-600.00
1196,0.00
1197,400.00
1198,600.00
1199,800.00
1200,1000.00
1201,1000.00
1202,1200.00
1203,1000.00
1204,1000.00
1205,1200.00
1206,1000.00
1207,800.00
1208,1200.00
1209,1000.00
1210,1200.00
1211,1200.00
1212,1000.00
1213,1000.00
1214,1000.00
1215,1200.00
1216,1200.00
1217,1000.00
1218,1200.00
1219,800.00
1220,1200.00
1221,1000.00
1222,1000.00
1223,1200.00
1224,1000.00
1225,1000.00
1226,1000.00
1227,1000.00
1228,1200.00
1229,1000.00
1230,1000.00
1231,1000.00
1232,1000.00
1233,1000.00
1234,1000.00
1235,1200.00
1236,1200.00
1237,1000.00
1238,1200.00
1239,1000.00
1240,1000.00
1241,1000.00
1242,1000.00
1243,1000.00
1244,1000.00
1245,1000.00
1246,1000.00
1247,1000.00
1248,1000.00
1249,1000.00
1250,1000.00
1251,1000.00
1252,1000.00
1253,1000.00
1254,1000.00
1255,1000.00
1256,1000.00
1257,1000.00
1258,1000.00
1259,1000.00
1260,1200.00
1261,1000.00
1262,1000.00
1263,1200.00
1264,1000.00
1265,1200.00
1266,1200.00
1267,1200.00
1268,1000.00
1269,1000.00
1270,1000.00
1271,1000.00
1272,1000.00
1273,1200.00
1274,1000.00
1275,1000.00
1276,1000.00
1277,1000.00
1278,1200.00
1279,1000.00
1280,1000.00
1281,1000.00
1282,1000.00
1283,1000.00
1284,1000.00
1285,1200.00
1286,1200.00
1287,1000.00
1288,1200.00
1289,1000.00
1290,1200.00
1291,1000.00
1292,1200.00
1293,1200.00
1294,1000.00
1295,1200.00
1296,1200.00
1297,1000.00
1298,1200.00
1299,1000.00
1300,1200.00
1301,1000.00
1302,1000.00
1303,1200.00
1304,1000.00
1305,1000.00
1306,1000.00
1307,1200.00
1308,1200.00
1309,1000.00
1310,1200.00
1311,1000.00
1312,1000.00
1313,1200.00
1314,1000.00
1315,1000.00
1316,1000.00
1317,1000.00
1318,1200.00
1319,1200.00
1320,1000.00
1321,1000.00
1322,1000.00
1323,1000.00
1324,1000.00
1325,1000.00
1326,1000.00
1327,1000.00
1328,1200.00
1329,1000.00
1330,1200.00
1331,1200.00
1332,1200.00
1333,1200.00
1334,1000.00
1335,1000.00
1336,1000.00
1337,1000.00
1338,1200.00
1339,1200.00
1340,1000.00
1341,1000.00
1342,1000.00
1343,1200.00
1344,1000.00
1345,1000.00
1346,1000.00
1347,1000.00
1348,1200.00
1349,1000.00
1350,1200.00
1351,1000.00
1352,1000.00
1353,1000.00
1354,1000.00
1355,1000.00
1356,1000.00
1357,1000.00
1358,1200.00
1359,1000.00
1360,1200.00
1361,1000.00
1362,1000.00
1363,1200.00
1364,800.00
1365,1000.00
1366,1000.00
1367,1000.00
1368,1000.00
1369,800.00
1370,1000.00
1371,1000.00
1372,800.00
1373,1000.00
1374,800.00
1375,1000.00
1376,1000.00
1377,800.00
1378,1000.00
1379,1000.00
1380,1000.00
1381,1000.00
1382,800.00
1383,1000.00
1384,800.00
1385,800.00
1386,800.00
1387,1000.00
1388,800.00
1389,800.00
1390,800.00
1391,800.00
1392,800.00
1393,800.00
1394,1000.00
1395,800.00
1396,800.00
1397,600.00
1398,800.00
1399,800.00
1400,800.00
1401,800.00
1402,600.00
1403,600.00
1404,600.00
1405,600.00
1406,800.00
1407,800.00
1408,600.00
1409,800.00
1410,800.00
1411,800.00
1412,600.00
1413,800.00
1414,600.00
1415,600.00
1416,800.00
1417,800.00
1418,800.00
1419,600.00
1420,600.00
1421,600.00
1422,600.00
1423,400.00
1424,800.00
1425,800.00
1426,-4400.00
1427,-2600.00
1428,-2200.00
1429,-2400.00
1430,-2200.00
1431,-2400.00
1432,-2200.00
1433,-2200.00
1434,-2400.00
1435,-2000.00
1436,-2200.00
1437,-2200.00
1438,-2000.00
1439,-2400.00
1440,-2000.00
1441,-2200.00
1442,-2200.00
1443,-2000.00
1444,-2400.00
1445,-2200.00
1446,-2200.00
1447,-2200.00
1448,-2000.00
1449,-2400.00
1450,-2000.00
1451,-2200.00
1452,-2200.00
1453,-2000.00
1454,-2200.00
1455,-1800.00
1456,-2000.00
1457,-2000.00
1458,-1800.00
1459,-2200.00
1460,-2000.00
1461,-2000.00
1462,-2000.00
1463,-2000.00
1464,-2400.00
1465,-2200.00
1466,-2000.00
1467,-2000.00
1468,-1800.00
1469,-2000.00
1470,-2000.00
1471,-2000.00
1472,-2000.00
1473,-1800.00
1474,-2000.00
1475,-2000.00
1476,-2000.00
1477,-2200.00
1478,-1800.00
1479,-2200.00
1480,-2000.00
1481,-2000.00
1482,-2000.00
1483,-1800.00
1484,-2000.00
1485,-1600.00
1486,-2000.00
1487,-2000.00
1488,-1800.00
1489,-2000.00
1490,-1800.00
1491,-2000.00
1492,-1800.00
1493,-1800.00
1494,-2000.00
1495,-1800.00
1496,-1800.00
1497,-1800.00
1498,-1600.00
1499,-2000.00
1500,-1600.00
1501,-1800.00
1502,-1800.00
1503,-1600.00
1504,-2000.00
1505,-1800.00
1506,-2000.00
1507,-1800.00
1508,-1600.00
1509,-1800.00
1510,-1600.00
1511,-1800.00
1512,-1800.00
1513,-1600.00
1514,-2000.00
1515,-1800.00
1516,-1800.00
1517,-1800.00
1518,-1800.00
1519,-1800.00
1520,-1600.00
1521,-1600.00
1522,-1800.00
1523,-1600.00
1524,-1800.00
1525,-1600.00
1526,-1800.00
1527,-1800.00
1528,-1600.00
1529,-1800.00
1530,-1600.00
1531,-1600.00
1532,-1800.00
1533,-1600.00
1534,-1800.00
1535,-1600.00
1536,-1600.00
1537,-1800.00
1538,-1600.00
1539,-1800.00
1540,-1400.00
1541,-1600.00
1542,-1600.00
1543,-1600.00
1544,-1800.00
1545,-1400.00
1546,-1600.00
1547,-1600.00
1548,-1400.00
1549,-1600.00
1550,-1400.00
1551,-1600.00
1552,-1600.00
1553,-1400.00
1554,-1600.00
1555,-1400.00
1556,-1600.00
1557,-1600.00
1558,-1400.00
1559,-1600.00
1560,-1400.00
1561,-1400.00
1562,-1600.00
1563,-1400.00
1564,-1600.00
1565,-1400.00
1566,-1400.00
1567,-1400.00
1568,-1200.00
1569,-1600.00
1570,-1400.00
1571,-1400.00
1572,-1400.00
1573,-1200.00
1574,-1600.00
1575,-1400.00
1576,-1400.00
1577,-1600.00
1578,-1200.00
1579,-1600.00
1580,-2400.00
1581,-1400.00
1582,-800.00
1583,200.00
1584,400.00
1585,800.00
1586,1000.00
1587,800.00
1588,1200.00
1589,1000.00
1590,1200.00
1591,1200.00
1592,1000.00
1593,1200.00
1594,1000.00
1595,1200.00
1596,1200.00
1597,1000.00
1598,1200.00
1599,1200.00
1600,1200.00
1601,1200.00
1602,1000.00
1603,1200.00
1604,1200.00
1605,1200.00
1606,1200.00
1607,1000.00
1608,1200.00
1609,1200.00
1610,1000.00
1611,1200.00
1612,1000.00
1613,1200.00
1614,1200.00
1615,1200.00
1616,1200.00
1617,1000.00
1618,1000.00
1619,1000.00
1620,1000.00
1621,1200.00
1622,1000.00
1623,1200.00
1624,1000.00
1625,1200.00
1626,1200.00
1627,1200.00
1628,1200.00
1629,1000.00
1630,1000.00
1631,1200.00
1632,1000.00
1633,1200.00
1634,1000.00
1635,1200.00
1636,1200.00
1637,1000.00
1638,1200.00
1639,1200.00
1640,1200.00
1641,1200.00
1642,1000.00
1643,1200.00
1644,1200.00
1645,1000.00
1646,1200.00
1647,1000.00
1648,1200.00
1649,1000.00
1650,1000.00
1651,1000.00
1652,1000.00
1653,1200.00
1654,1000.00
1655,1200.00
1656,1200.00
1657,1000.00
1658,1200.00
1659,1200.00
1660,1200.00
1661,1200.00
1662,1000.00
1663,1200.00
1664,1000.00
1665,1200.00
1666,1200.00
1667,1000.00
1668,1200.00
1669,1000.00
1670,1200.00
1671,1200.00
1672,1000.00
1673,1200.00
1674,1000.00
1675,1200.00
1676,1200.00
1677,1200.00
1678,1200.00
1679,1000.00
1680,1000.00
1681,1200.00
1682,1200.00
1683,1200.00
1684,1200.00
1685,1000.00
1686,1200.00
1687,1000.00
1688,1200.00
1689,1200.00
1690,1200.00
1691,1200.00
1692,1000.00
1693,1200.00
1694,1000.00
1695,1200.00
1696,1200.00
1697,1000.00
1698,1200.00
1699,1000.00
1700,1000.00
1701,1200.00
1702,1200.00
1703,1200.00
1704,1200.00
1705,1000.00
1706,1200.00
1707,1000.00
1708,1200.00
1709,1000.00
1710,1000.00
1711,1000.00
1712,1200.00
1713,1200.00
1714,1200.00
1715,1000.00
1716,1200.00
1717,1000.00
1718,1200.00
1719,1200.00
1720,1200.00
1721,1200.00
1722,1200.00
1723,1400.00
1724,1000.00
1725,1000.00
1726,1200.00
1727,1000.00
1728,1200.00
1729,1000.00
1730,1200.00
1731,1000.00
1732,1000.00
1733,1200.00
1734,1000.00
1735,1000.00
1736,1000.00
1737,1000.00
1738,1000.00
1739,1000.00
1740,1000.00
1741,1000.00
1742,1000.00
1743,800.00
1744,800.00
1745,1000.00
1746,1000.00
1747,800.00
1748,1000.00
1749,800.00
1750,1000.00
1751,800.00
1752,800.00
1753,1000.00
1754,800.00
1755,800.00
1756,1000.00
1757,800.00
1758,1000.00
1759,800.00
1760,800.00
1761,800.00
1762,600.00
1763,800.00
1764,800.00
1765,800.00
1766,1000.00
1767,600.00
1768,600.00
1769,600.00
1770,600.00
1771,600.00
1772,800.00
1773,600.00
1774,600.00
1775,800.00
1776,600.00
1777,600.00
1778,800.00
1779,800.00
1780,600.00
1781,800.00
1782,600.00
1783,600.00
1784,800.00
1785,600.00
1786,600.00
1787,800.00
1788,800.00
1789,600.00
1790,800.00
1791,600.00
1792,800.00
1793,600.00
1794,800.00
1795,600.00
1796,600.00
1797,600.00
1798,400.00
1799,600.00
1800,600.00
1801,800.00
1802,600.00
1803,600.00
1804,600.00
1805,600.00
1806,600.00
1807,200.00
1808,400.00
1809,600.00
1810,600.00
1811,400.00
1812,600.00
1813,600.00
1814,400.00
1815,600.00
1816,600.00
1817,200.00
1818,400.00
1819,600.00
1820,400.00
1821,400.00
1822,400.00
1823,400.00
1824,-2800.00
1825,-2600.00
1826,-2200.00
1827,-2600.00
1828,-2200.00
1829,-2200.00
1830,-2400.00
1831,-2200.00
1832,-2400.00
1833,-2200.00
1834,-2200.00
1835,-2400.00
1836,-2200.00
1837,-2400.00
1838,-2200.00
1839,-2200.00
1840,-2400.00
1841,-2000.00
1842,-2200.00
1843,-2200.00
1844,-2200.00
1845,-2200.00
1846,-2000.00
1847,-2400.00
1848,-2200.00
1849,-2000.00
1850,-2400.00
1851,-2000.00
1852,-2400.00
1853,-2200.00
1854,-2000.00
1855,-2200.00
1856,-2000.00
1857,-2200.00
1858,-2000.00
1859,-2000.00
1860,-2400.00
1861,-2000.00
1862,-2000.00
1863,-2200.00
1864,-2000.00
1865,-2200.00
1866,-2000.00
1867,-2000.00
1868,-2000.00
1869,-1800.00
1870,-2000.00
1871,-2000.00
1872,-2200.00
1873,-2000.00
1874,-2000.00
1875,-2000.00
1876,-1800.00
1877,-2000.00
1878,-1800.00
1879,-1800.00
1880,-2000.00
1881,-1800.00
1882,-2000.00
1883,-1800.00
1884,-1800.00
1885,-2000.00
1886,-1800.00
1887,-2200.00
1888,-1800.00
1889,-1800.00
1890,-2000.00
1891,-1800.00
1892,-2000.00
1893,-1800.00
1894,-1800.00
1895,-1800.00
1896,-1800.00
1897,-2000.00
1898,-1800.00
1899,-1800.00
1900,-2000.00
1901,-1600.00
1902,-1800.00
1903,-1800.00
1904,-1800.00
1905,-1800.00
1906,-1600.00
1907,-1800.00
1908,-1600.00
1909,-1800.00
1910,-1800.00
1911,-1800.00
1912,-2000.00
1913,-1800.00
1914,-1800.00
1915,-1800.00
1916,-1600.00
1917,-1800.00
1918,-1800.00
1919,-1600.00
1920,-1800.00
1921,-1600.00
1922,-1800.00
1923,-1600.00
1924,-1600.00
1925,-1600.00
1926,-1600.00
1927,-1800.00
1928,-1600.00
1929,-1600.00
1930,-1800.00
1931,-1600.00
1932,-1800.00
1933,-1600.00
1934,-1600.00
1935,-1800.00
1936,-1600.00
1937,-1800.00
1938,-1600.00
1939,-1600.00
1940,-1600.00
1941,-1600.00
1942,-1600.00
1943,-1600.00
1944,-1600.00
1945,-1600.00
1946,-1400.00
1947,-1600.00
1948,-1600.00
1949,-1600.00
1950,-1600.00
1951,-1400.00
1952,-1600.00
1953,-1400.00
1954,-1400.00
1955,-1600.00
1956,-1200.00
1957,-1600.00
1958,-1600.00
1959,-1600.00
1960,-1600.00
1961,-1600.00
1962,-1600.00
1963,-1400.00
1964,-1400.00
1965,-1600.00
1966,-1400.00
1967,-1600.00
1968,-1400.00
1969,-1200.00
1970,-1400.00
1971,-1400.00
1972,-1600.00
1973,-1400.00
1974,-1400.00
1975,-1400.00
1976,-1200.00
1977,-1600.00
1978,-1400.00
1979,-1200.00
1980,-1600.00
1981,-1400.00
1982,-1600.00
1983,-2800.00
1984,-1400.00
1985,-600.00
1986,200.00
1987,200.00
1988,600.00
1989,1000.00
1990,800.00
1991,1200.00
1992,1200.00
1993,1200.00
1994,1200.00
1995,1000.00
1996,1200.00
1997,1200.00
1998,1200.00
1999,1200.00
2000,1200.00
2001,1200.00
2002,1200.00
2003,1200.00
2004,1200.00
2005,1200.00
2006,1000.00
2007,1200.00
2008,1200.00
2009,1200.00
2010,1200.00
2011,1200.00
2012,1200.00
2013,1200.00
2014,1200.00
2015,1200.00
2016,1200.00
2017,1200.00
2018,1200.00
2019,1200.00
2020,1000.00
2021,1200.00
2022,1200.00
2023,1200.00
2024,1200.00
2025,1200.00
2026,1200.00
2027,1400.00
2028,1200.00
2029,1400.00
2030,1200.00
2031,1200.00
2032,1200.00
2033,1200.00
2034,1200.00
2035,1200.00
2036,1200.00
2037,1200.00
2038,1200.00
2039,1200.00
2040,1200.00
2041,1200.00
2042,1200.00
2043,1200.00
2044,1200.00
2045,1200.00
2046,1400.00
2047,1200.00
2048,1200.00
2049,1200.00
2050,1000.00
2051,1200.00
2052,1200.00
2053,1200.00
2054,1000.00
2055,1200.00
2056,1200.00
2057,1200.00
2058,1000.00
2059,1200.00
2060,1000.00
2061,1200.00
2062,1200.00
2063,1200.00
2064,1200.00
2065,1200.00
2066,1200.00
2067,1200.00
2068,1200.00
2069,1200.00
2070,1200.00
2071,1200.00
2072,1200.00
2073,1200.00
2074,1200.00
2075,1200.00
2076,1200.00
2077,1200.00
2078,1200.00
2079,1200.00
2080,1000.00
2081,1200.00
2082,1200.00
2083,1200.00
2084,1200.00
2085,1200.00
2086,1200.00
2087,1200.00
2088,1200.00
2089,1200.00
2090,1200.00
2091,1200.00
2092,1200.00
2093,1200.00
2094,1200.00
2095,1000.00
2096,1200.00
2097,1200.00
2098,1200.00
2099,1200.00
2100,1000.00
2101,1400.00
2102,1200.00
2103,1000.00
2104,1200.00
2105,1000.00
2106,1200.00
2107,1000.00
2108,1200.00
2109,1200.00
2110,1000.00
2111,1200.00
2112,1000.00
2113,1200.00
2114,1000.00
2115,1000.00
2116,1200.00
2117,1000.00
2118,1000.00
2119,1000.00
2120,1000.00
2121,1000.00
2122,1000.00
2123,1000.00
2124,1000.00
2125,1000.00
2126,1000.00
2127,1000.00
2128,-3400.00
2129,-2200.00
2130,-2200.00
2131,-2000.00
2132,-2200.00
2133,-1800.00
2134,-2000.00
2135,-2200.00
2136,-2000.00
2137,-2200.00
2138,-2200.00
2139,-2000.00
2140,-2000.00
2141,-1800.00
2142,-2200.00
2143,-2000.00
2144,-2000.00
2145,-2000.00
2146,-2000.00
2147,-2000.00
2148,-1800.00
2149,-1800.00
2150,-2000.00
2151,-1800.00
2152,-2000.00
2153,-1800.00
2154,-1800.00
2155,-2000.00
2156,-1800.00
2157,-2000.00
2158,-1800.00
2159,-1800.00
2160,-2200.00
2161,-1600.00
2162,-2000.00
2163,-1800.00
2164,-1800.00
2165,-2000.00
2166,-1800.00
2167,-1800.00
2168,-1800.00
2169,-1800.00
2170,-1800.00
2171,-1600.00
2172,-1800.00
2173,-1800.00
2174,-1600.00
2175,-1800.00
2176,-1600.00
2177,-2000.00
2178,-1800.00
2179,-1800.00
2180,-1800.00
2181,-1600.00
2182,-1800.00
2183,-1800.00
2184,-1600.00
2185,-1800.00
2186,-1600.00
2187,-1800.00
2188,-1600.00
2189,-1600.00
2190,-1800.00
2191,-1600.00
2192,-1800.00
2193,-1800.00
2194,-1600.00
2195,-1800.00
2196,-1400.00
2197,-1600.00
2198,-1600.00
2199,-1600.00
2200,-1800.00
2201,-1600.00
2202,-1800.00
2203,-1600.00
2204,-1600.00
2205,-1600.00
2206,-1600.00
2207,-1600.00
2208,-1600.00
2209,-1400.00
2210,-1600.00
2211,-1400.00
2212,-1600.00
2213,-1600.00
2214,-1600.00
2215,-1800.00
2216,-1400.00
2217,-1600.00
2218,-1600.00
2219,-1600.00
2220,-1600.00
2221,-1400.00
2222,-1600.00
2223,-1600.00
2224,-1400.00
2225,-1600.00
2226,-1400.00
2227,-1600.00
2228,-1600.00
2229,-1600.00
2230,-1600.00
2231,-1400.00
2232,-1600.00
2233,-1400.00
2234,-1400.00
2235,-1600.00
2236,-1400.00
2237,-1600.00
2238,-1400.00
2239,-1400.00
2240,-1600.00
2241,-1200.00
2242,-1600.00
2243,-1400.00
2244,-1400.00
2245,-1600.00
2246,-1200.00
2247,-1400.00
2248,-1400.00
2249,-1400.00
2250,-1400.00
2251,-1200.00
2252,-1600.00
2253,-1200.00
2254,-1400.00
2255,-1600.00
2256,-1200.00
2257,-1400.00
2258,-1400.00
2259,-1200.00
2260,-1400.00
2261,-1200.00
2262,-1400.00
2263,-1200.00
2264,-1200.00
2265,-1400.00
2266,-1200.00
2267,-1400.00
2268,-1200.00
2269,-1200.00
2270,-1400.00
2271,-1200.00
2272,-1400.00
2273,-1200.00
2274,-1200.00
2275,-1400.00
2276,-1200.00
2277,-1200.00
2278,-1200.00
2279,-1000.00
2280,-1400.00
2281,-1000.00
2282,-2200.00
2283,-1000.00
2284,0.00
2285,400.00
2286,800.00
2287,800.00
2288,1000.00
2289,1200.00
2290,1000.00
2291,1200.00
2292,1200.00
2293,1000.00
2294,1200.00
2295,1200.00
2296,1200.00
2297,1200.00
2298,1200.00
2299,1200.00
2300,1200.00
2301,1400.00
2302,1200.00
2303,1200.00
2304,1400.00
2305,1200.00
2306,1200.00
2307,1200.00
2308,1200.00
2309,1400.00
2310,1200.00
2311,1600.00
2312,1400.00
2313,1200.00
2314,1200.00
2315,1200.00
2316,1200.00
2317,1200.00
2318,1400.00
2319,1400.00
2320,1200.00
2321,1400.00
2322,1200.00
2323,1200.00
2324,1400.00
2325,1200.00
2326,1400.00
2327,1200.00
2328,1200.00
2329,1400.00
2330,1200.00
2331,1400.00
2332,1200.00
2333,1200.00
2334,1400.00
2335,1200.00
2336,1400.00
2337,1200.00
2338,1200.00
2339,1400.00
2340,1200.00
2341,1400.00
2342,1200.00
2343,1400.00
2344,1200.00
2345,1200.00
2346,1400.00
2347,1400.00
2348,1200.00
2349,1200.00
2350,1200.00
2351,1400.00
2352,1400.00
2353,1200.00
2354,1200.00
2355,1400.00
2356,1200.00
2357,1200.00
2358,1200.00
2359,1400.00
2360,1200.00
2361,1200.00
2362,1200.00
2363,1200.00
2364,1400.00
2365,1000.00
2366,1400.00
2367,1200.00
2368,1200.00
2369,1400.00
2370,1200.00
2371,1400.00
2372,1200.00
2373,1200.00
2374,1400.00
2375,1200.00
2376,1200.00
2377,1400.00
2378,1400.00
2379,1400.00
2380,1200.00
2381,1200.00
2382,1200.00
2383,1400.00
2384,1200.00
2385,1200.00
2386,1000.00
2387,1200.00
2388,1400.00
2389,1200.00
2390,1200.00
2391,1200.00
2392,1200.00
2393,1200.00
2394,1200.00
2395,1200.00
2396,1200.00
2397,1000.00
2398,1200.00
2399,1200.00
2400,1200.00
2401,1200.00
2402,1400.00
2403,1200.00
2404,1200.00
2405,1400.00
2406,1200.00
2407,1200.00
2408,1200.00
2409,1200.00
2410,1200.00
2411,1200.00
2412,1200.00
2413,1200.00
2414,1200.00
2415,1000.00
2416,1200.00
2417,1400.00
2418,1000.00
2419,1200.00
2420,1200.00
2421,1200.00
2422,1400.00
2423,1000.00
2424,1200.00
2425,1200.00
2426,1000.00
2427,1200.00
2428,1000.00
2429,1200.00
2430,1200.00
2431,1000.00
2432,1200.00
2433,1000.00
2434,1000.00
2435,1000.00
2436,1000.00
2437,1000.00
2438,1000.00
2439,1200.00
2440,1000.00
2441,1000.00
2442,1000.00
2443,1000.00
2444,1000.00
2445,1000.00
2446,1000.00
2447,800.00
2448,800.00
2449,800.00
2450,1000.00
2451,800.00
2452,800.00
2453,800.00
2454,1000.00
2455,800.00
2456,1000.00
2457,800.00
2458,800.00
2459,800.00
2460,800.00
2461,1000.00
2462,800.00
2463,800.00
2464,800.00
2465,800.00
2466,800.00
2467,800.00
2468,800.00
2469,800.00
2470,600.00
2471,600.00
2472,800.00
2473,800.00
2474,800.00
2475,800.00
2476,600.00
2477,800.00
2478,800.00
2479,600.00
2480,800.00
2481,400.00
2482,600.00
2483,800.00
2484,600.00
2485,600.00
2486,600.00
2487,800.00
2488,600.00
2489,800.00
2490,600.00
2491,400.00
2492,600.00
2493,400.00
2494,600.00
2495,600.00
2496,600.00
2497,600.00
2498,600.00
2499,600.00
2500,600.00
2501,600.00
2502,600.00
2503,400.00
2504,400.00
2505,400.00
2506,600.00
2507,800.00
2508,200.00
2509,-5200.00
2510,-2800.00
2511,-2400.00
2512,-2200.00
2513,-2400.00
2514,-2200.00
2515,-2200.00
2516,-2400.00
2517,-2200.00
2518,-2400.00
2519,-2200.00
2520,-2200.00
2521,-2200.00
2522,-2000.00
2523,-2400.00
2524,-2000.00
2525,-2200.00
2526,-2200.00
2527,-2000.00
2528,-2400.00
2529,-2000.00
2530,-2200.00
2531,-2000.00
2532,-2000.00
2533,-2200.00
2534,-2000.00
2535,-2200.00
2536,-2000.00
2537,-2000.00
2538,-2200.00
2539,-2000.00
2540,-2200.00
2541,-2200.00
2542,-2000.00
2543,-2200.00
2544,-2000.00
2545,-2000.00
2546,-2000.00
2547,-2200.00
2548,-2200.00
2549,-2000.00
2550,-2000.00
2551,-2000.00
2552,-1800.00
2553,-2200.00
2554,-1800.00
2555,-2000.00
2556,-2000.00
2557,-1800.00
2558,-2000.00
2559,-1800.00
2560,-2000.00
2561,-2000.00
2562,-1800.00
2563,-2000.00
2564,-1800.00
2565,-1800.00
2566,-2000.00
2567,-1800.00
2568,-2000.00
2569,-1800.00
2570,-2000.00
2571,-1800.00
2572,-1800.00
2573,-2000.00
2574,-1800.00
2575,-1800.00
2576,-1800.00
2577,-1600.00
2578,-2000.00
2579,-1600.00
2580,-1800.00
2581,-1800.00
2582,-1600.00
2583,-1800.00
2584,-1800.00
2585,-1800.00
2586,-1800.00
2587,-1600.00
2588,-1800.00
2589,-1600.00
2590,-1800.00
2591,-1600.00
2592,-1600.00
2593,-1800.00
2594,-1600.00
2595,-1800.00
2596,-1600.00
2597,-1600.00
2598,-1800.00
2599,-1600.00
2600,-1800.00
2601,-1600.00
2602,-1400.00
2603,-1800.00
2604,-1600.00
2605,-1600.00
2606,-1800.00
2607,-1600.00
2608,-1800.00
2609,-1400.00
2610,-1800.00
2611,-1600.00
2612,-1600.00
2613,-1800.00
2614,-1400.00
2615,-1600.00
2616,-1600.00
2617,-1600.00
2618,-1800.00
2619,-1400.00
2620,-1600.00
2621,-1600.00
2622,-1400.00
2623,-1800.00
2624,-1400.00
2625,-1600.00
2626,-1600.00
2627,-1600.00
2628,-1800.00
2629,-1400.00
2630,-1600.00
2631,-1600.00
2632,-1400.00
2633,-1800.00
2634,-1400.00
2635,-1600.00
2636,-1600.00
2637,-1400.00
2638,-1600.00
2639,-1400.00
2640,-1600.00
2641,-1400.00
2642,-1400.00
2643,-1600.00
2644,-1200.00
2645,-1600.00
2646,-1400.00
2647,-1400.00
2648,-1600.00
2649,-1200.00
2650,-1600.00
2651,-1400.00
2652,-1400.00
2653,-1600.00
2654,-1200.00
2655,-1400.00
2656,-1400.00
2657,-1200.00
2658,-1600.00
2659,-1200.00
2660,-1400.00
2661,-1400.00
2662,-1200.00
2663,-1600.00
2664,-1200.00
2665,-1400.00
2666,-1400.00
2667,-1200.00
2668,-1400.00
2669,-1200.00
2670,-1400.00
2671,-1400.00
2672,-1200.00
2673,-1600.00
2674,-1200.00
2675,-1200.00
2676,-1400.00
2677,-1200.00
2678,-2400.00
2679,-1200.00
2680,-600.00
2681,200.00
2682,600.00
2683,800.00
2684,1000.00
2685,1200.00
2686,1200.00
2687,1200.00
2688,1200.00
2689,1400.00
2690,1200.00
2691,1400.00
2692,1600.00
2693,1200.00
2694,1400.00
2695,1200.00
2696,1200.00
2697,1200.00
2698,1400.00
2699,1400.00
2700,1400.00
2701,1200.00
2702,1400.00
2703,1200.00
2704,1400.00
2705,1200.00
2706,1200.00
2707,1200.00
2708,1200.00
2709,1400.00
2710,1400.00
2711,1400.00
2712,1200.00
2713,1200.00
2714,1400.00
2715,1200.00
2716,1200.00
2717,1600.00
2718,1200.00
2719,1200.00
2720,1200.00
2721,1200.00
2722,1400.00
2723,1200.00
2724,1400.00
2725,1200.00
2726,1000.00
2727,1600.00
2728,1200.00
2729,1400.00
2730,1200.00
2731,1400.00
2732,1400.00
2733,1400.00
2734,1400.00
2735,1600.00
2736,1200.00
2737,1200.00
2738,1400.00
2739,1400.00
2740,1200.00
2741,1200.00
2742,1400.00
2743,1200.00
2744,1200.00
2745,1400.00
2746,1200.00
2747,1200.00
2748,1200.00
2749,1400.00
2750,1400.00
2751,1200.00
2752,1400.00
2753,1400.00
2754,1400.00
2755,1400.00
2756,1200.00
2757,1600.00
2758,1400.00
2759,1200.00
2760,1400.00
2761,1400.00
2762,1400.00
2763,1200.00
2764,1400.00
2765,1200.00
2766,1200.00
2767,1400.00
2768,1200.00
2769,1400.00
2770,1600.00
2771,1200.00
2772,1400.00
2773,1200.00
2774,1200.00
2775,1400.00
2776,1400.00
2777,1200.00
2778,1200.00
2779,1400.00
2780,1200.00
2781,1200.00
2782,1400.00
2783,1200.00
2784,1000.00
2785,1200.00
2786,1200.00
2787,1400.00
2788,1200.00
2789,1200.00
2790,1200.00
2791,1200.00
2792,1200.00
2793,1200.00
2794,1200.00
2795,1200.00
2796,1200.00
2797,1200.00
2798,1200.00
2799,1200.00
2800,1200.00
2801,1200.00
2802,1200.00
2803,1000.00
2804,1000.00
2805,1000.00
2806,1200.00
2807,1000.00
2808,1200.00
2809,1000.00
2810,1200.00
2811,1000.00
2812,1000.00
2813,1000.00
2814,1000.00
2815,1000.00
2816,1000.00
2817,1000.00
2818,800.00
2819,1000.00
2820,-3200.00
2821,-2200.00
2822,-2000.00
2823,-2000.00
2824,-2000.00
2825,-1800.00
2826,-2000.00
2827,-1800.00
2828,-2200.00
2829,-1800.00
2830,-2000.00
2831,-2000.00
2832,-2000.00
2833,-2000.00
2834,-1800.00
2835,-2000.00
2836,-2000.00
2837,-1800.00
2838,-2200.00
2839,-1800.00
2840,-2000.00
2841,-1800.00
2842,-1800.00
2843,-2000.00
2844,-1800.00
2845,-1800.00
2846,-1800.00
2847,-1600.00
2848,-2000.00
2849,-1800.00
2850,-1800.00
2851,-2200.00
2852,-1800.00
2853,-2000.00
2854,-1600.00
2855,-1800.00
2856,-1800.00
2857,-1600.00
2858,-2000.00
2859,-1800.00
2860,-1800.00
2861,-2000.00
2862,-1600.00
2863,-1800.00
2864,-1600.00
2865,-1800.00
2866,-1800.00
2867,-1600.00
2868,-1800.00
2869,-1600.00
2870,-1800.00
2871,-1800.00
2872,-1600.00
2873,-1800.00
2874,-1600.00
2875,-1600.00
2876,-1600.00
2877,-1600.00
2878,-1800.00
2879,-1800.00
2880,-1600.00
2881,-1800.00
2882,-1600.00
2883,-1800.00
2884,-1600.00
2885,-1600.00
2886,-1600.00
2887,-1600.00
2888,-1800.00
2889,-1600.00
2890,-1600.00
2891,-1800.00
2892,-1600.00
2893,-1600.00
2894,-1600.00
2895,-1600.00
2896,-1600.00
2897,-1600.00
2898,-1800.00
2899,-1400.00
2900,-1600.00
2901,-1600.00
2902,-1400.00
2903,-1600.00
2904,-1600.00
2905,-1600.00
2906,-1600.00
2907,-1400.00
2908,-1600.00
2909,-1400.00
2910,-1600.00
2911,-1600.00
2912,-1400.00
2913,-1600.00
2914,-1400.00
2915,-1600.00
2916,-1600.00
2917,-1400.00
2918,-1600.00
2919,-1400.00
2920,-1600.00
2921,-1600.00
2922,-1200.00
2923,-1600.00
2924,-1200.00
2925,-1600.00
2926,-1400.00
2927,-1400.00
2928,-1600.00
2929,-1200.00
2930,-1400.00
2931,-1600.00
2932,-1200.00
2933,-1600.00
2934,-1400.00
2935,-1400.00
2936,-1600.00
2937,-1200.00
2938,-1400.00
2939,-1400.00
2940,-1400.00
2941,-1400.00
2942,-1200.00
2943,-1400.00
2944,-1200.00
2945,-1400.00
2946,-1400.00
2947,-1200.00
2948,-1400.00
2949,-1200.00
2950,-1400.00
2951,-1400.00
2952,-1200.00
2953,-1600.00
2954,-1200.00
2955,-1400.00
2956,-1400.00
2957,-1200.00
2958,-1400.00
2959,-1200.00
2960,-1200.00
2961,-1400.00
2962,-1200.00
2963,-1600.00
2964,-1200.00
2965,-1200.00
2966,-1200.00
2967,-1200.00
2968,-1400.00
2969,-1200.00
2970,-1200.00
2971,-1200.00
2972,-1200.00
2973,-1200.00
2974,-1200.00
2975,-1200.00
2976,-1400.00
2977,-1000.00
2978,-1200.00
2979,-1000.00
2980,-1200.00
2981,-1200.00
2982,-1600.00
2983,-800.00
2984,0.00
2985,400.00
2986,600.00
2987,1000.00
2988,1200.00
2989,1200.00
2990,1400.00
2991,1400.00
2992,1400.00
2993,1200.00
2994,1400.00
2995,1400.00
2996,1600.00
2997,1200.00
2998,1200.00
2999,1400.00
3000,1400.00
3001,1400.00
3002,1400.00
3003,1600.00
3004,1400.00
3005,1600.00
3006,1400.00
3007,1400.00
3008,1400.00
3009,1400.00
3010,1400.00
3011,1200.00
3012,1400.00
3013,1600.00
3014,1400.00
3015,1600.00
3016,1400.00
3017,1200.00
3018,1400.00
3019,1200.00
3020,1600.00
3021,1200.00
3022,1200.00
3023,1400.00
3024,1200.00
3025,1400.00
3026,1200.00
3027,1200.00
3028,1200.00
3029,1400.00
3030,1400.00
3031,1400.00
3032,1400.00
3033,1400.00
3034,1200.00
3035,1200.00
3036,1200.00
3037,1400.00
3038,1200.00
3039,1200.00
3040,1400.00
3041,1400.00
3042,1200.00
3043,1200.00
3044,1400.00
3045,1400.00
3046,1200.00
3047,1600.00
3048,1200.00
3049,1400.00
3050,1600.00
3051,1200.00
3052,1600.00
3053,1400.00
3054,1400.00
3055,1400.00
3056,1400.00
3057,1200.00
3058,1600.00
3059,1200.00
3060,1600.00
3061,1400.00
3062,1400.00
3063,1600.00
3064,1200.00
3065,1600.00
3066,1200.00
3067,1400.00
3068,1400.00
3069,1200.00
3070,1400.00
3071,1600.00
3072,1400.00
3073,1400.00
3074,1200.00
3075,1400.00
3076,1600.00
3077,1200.00
3078,1400.00
3079,1200.00
3080,1200.00
3081,1400.00
3082,1400.00
3083,1400.00
3084,1200.00
3085,1200.00
3086,1400.00
3087,1600.00
3088,1600.00
3089,1400.00
3090,1400.00
3091,1400.00
3092,1200.00
3093,1400.00
3094,1200.00
3095,1400.00
3096,1200.00
3097,1400.00
3098,1200.00
3099,1200.00
3100,1400.00
3101,1200.00
3102,1200.00
3103,1200.00
3104,1200.00
3105,1200.00
3106,1200.00
3107,1200.00
3108,1200.00
3109,1200.00
3110,1200.00
3111,1200.00
3112,1200.00
3113,1200.00
3114,1200.00
3115,1200.00
3116,1200.00
3117,1200.00
3118,1200.00
3119,1000.00
3120,1000.00
3121,1200.00
3122,1200.00
3123,1200.00
3124,1000.00
3125,1200.00
3126,1000.00
3127,1200.00
3128,1000.00
3129,-5400.00
3130,-2400.00
3131,-2200.00
3132,-1800.00
3133,-2200.00
3134,-2000.00
3135,-1800.00
3136,-2000.00
3137,-2000.00
3138,-1800.00
3139,-2200.00
3140,-1800.00
3141,-2000.00
3142,-1800.00
3143,-2000.00
3144,-2000.00
3145,-1800.00
3146,-2000.00
3147,-1800.00
3148,-1800.00
3149,-2000.00
3150,-1800.00
3151,-2000.00
3152,-1800.00
3153,-1800.00
3154,-1800.00
3155,-1800.00
3156,-2000.00
3157,-1800.00
3158,-1800.00
3159,-2000.00
3160,-1800.00
3161,-2000.00
3162,-1800.00
3163,-1600.00
3164,-1800.00
3165,-1600.00
3166,-1800.00
3167,-1600.00
3168,-1600.00
3169,-1800.00
3170,-1600.00
3171,-1800.00
3172,-1600.00
3173,-1800.00
3174,-1800.00
3175,-1600.00
3176,-1800.00
3177,-1600.00
3178,-1800.00
3179,-1800.00
3180,-1600.00
3181,-1800.00
3182,-1600.00
3183,-1600.00
3184,-1600.00
3185,-1600.00
3186,-1800.00
3187,-1600.00
3188,-1600.00
3189,-1800.00
3190,-1600.00
3191,-1800.00
3192,-1600.00
3193,-1600.00
3194,-1600.00
3195,-1600.00
3196,-1800.00
3197,-1600.00
3198,-1400.00
3199,-1600.00
3200,-1400.00
3201,-1800.00
3202,-1600.00
3203,-1600.00
3204,-1600.00
3205,-1400.00
3206,-1800.00
3207,-1600.00
3208,-1400.00
3209,-1600.00
3210,-1400.00
3211,-1600.00
3212,-1200.00
3213,-1600.00
3214,-1600.00
3215,-1400.00
3216,-1600.00
3217,-1400.00
3218,-1400.00
3219,-1600.00
3220,-1200.00
3221,-1600.00
3222,-1400.00
3223,-1600.00
3224,-1600.00
3225,-1400.00
3226,-1400.00
3227,-1400.00
3228,-1400.00
3229,-1600.00
3230,-1200.00
3231,-1400.00
3232,-1400.00
3233,-1400.00
3234,-1600.00
3235,-1200.00
3236,-1400.00
3237,-1400.00
3238,-1400.00
3239,-1400.00
3240,-1200.00
3241,-1600.00
3242,-1200.00
3243,-1400.00
3244,-1400.00
3245,-1200.00
3246,-1400.00
3247,-1200.00
3248,-1200.00
3249,-1400.00
3250,-1200.00
3251,-1400.00
3252,-1200.00
3253,-1200.00
3254,-1400.00
3255,-1200.00
3256,-1400.00
3257,-1200.00
3258,-1200.00
3259,-1200.00
3260,-1200.00
3261,-1400.00
3262,-1200.00
3263,-1200.00
3264,-1400.00
3265,-1200.00
3266,-1400.00
3267,-1200.00
3268,-1200.00
3269,-1200.00
3270,-1000.00
3271,-1400.00
3272,-1400.00
3273,-1200.00
3274,-1400.00
3275,-1000.00
3276,-1200.00
3277,-1000.00
3278,-1200.00
3279,-1400.00
3280,-1000.00
3281,-1200.00
3282,-1200.00
3283,-1200.00
3284,-1200.00
3285,-1000.00
3286,-1200.00
3287,-1200.00
3288,-1200.00
3289,-1200.00
3290,-1000.00
3291,-1400.00
3292,-1000.00
3293,-2800.00
3294,-1600.00
3295,-400.00
3296,200.00
3297,800.00
3298,1000.00
3299,1000.00
3300,1200.00
3301,1200.00
3302,1400.00
3303,1200.00
3304,1200.00
3305,1600.00
3306,1400.00
3307,1400.00
3308,1400.00
3309,1400.00
3310,1400.00
3311,1400.00
3312,1400.00
3313,1600.00
3314,1400.00
3315,1400.00
3316,1600.00
3317,1600.00
3318,1600.00
3319,1400.00
3320,1200.00
3321,1600.00
3322,1400.00
3323,1400.00
3324,1400.00
3325,1600.00
3326,1400.00
3327,1400.00
3328,1200.00
3329,1400.00
3330,1400.00
3331,1400.00
3332,1400.00
3333,1600.00
3334,1400.00
3335,1400.00
3336,1400.00
3337,1600.00
3338,1400.00
3339,1200.00
3340,1600.00
3341,1200.00
3342,1200.00
3343,1400.00
3344,1400.00
3345,1400.00
3346,1400.00
3347,1200.00
3348,1400.00
3349,1400.00
3350,1600.00
3351,1600.00
3352,1600.00
3353,1600.00
3354,1200.00
3355,1200.00
3356,1400.00
3357,1200.00
3358,1600.00
3359,1200.00
3360,1400.00
3361,1400.00
3362,1200.00
3363,1600.00
3364,1400.00
3365,1200.00
3366,1200.00
3367,1400.00
3368,1400.00
3369,1400.00
3370,1400.00
3371,1400.00
3372,1600.00
3373,1400.00
3374,1400.00
3375,1400.00
3376,1200.00
3377,1200.00
3378,1600.00
3379,1400.00
3380,1600.00
3381,1600.00
3382,1400.00
3383,1600.00
3384,1600.00
3385,1400.00
3386,1400.00
3387,1200.00
3388,1200.00
3389,1200.00
3390,1400.00
3391,1400.00
3392,1400.00
3393,1600.00
3394,1200.00
3395,1400.00
3396,1400.00
3397,1400.00
3398,1400.00
3399,1400.00
3400,1200.00
3401,1200.00
3402,1400.00
3403,1400.00
3404,1200.00
3405,1200.00
3406,1200.00
3407,1200.00
3408,1200.00
3409,1200.00
3410,1200.00
3411,1200.00
3412,1400.00
3413,1200.00
3414,1200.00
3415,1200.00
3416,1200.00
3417,1200.00
3418,1200.00
3419,1200.00
3420,1200.00
3421,1200.00
3422,1200.00
3423,1200.00
3424,1200.00
3425,1000.00
3426,1000.00
3427,1200.00
3428,1000.00
3429,1000.00
3430,1200.00
3431,1000.00
3432,1000.00
3433,1000.00
3434,1000.00
3435,1000.00
3436,1000.00
3437,1000.00
3438,1000.00
3439,1000.00
3440,1000.00
3441,-4800.00
3442,-2200.00
3443,-2000.00
3444,-2000.00
3445,-1800.00
3446,-2200.00
3447,-1800.00
3448,-1800.00
3449,-2000.00
3450,-1800.00
3451,-2000.00
3452,-1800.00
3453,-1800.00
3454,-1800.00
3455,-1600.00
3456,-2000.00
3457,-1800.00
3458,-1800.00
3459,-2000.00
3460,-1600.00
3461,-2000.00
3462,-1800.00
3463,-1800.00
3464,-2000.00
3465,-1800.00
3466,-2000.00
3467,-1800.00
3468,-1800.00
3469,-2000.00
3470,-1600.00
3471,-1800.00
3472,-1800.00
3473,-1800.00
3474,-1800.00
3475,-1800.00
3476,-1800.00
3477,-1800.00
3478,-1600.00
3479,-1800.00
3480,-1600.00
3481,-1800.00
3482,-1800.00
3483,-1600.00
3484,-1800.00
3485,-1600.00
3486,-1800.00
3487,-1600.00
3488,-1600.00
3489,-1800.00
3490,-1600.00
3491,-1800.00
3492,-1600.00
3493,-1600.00
3494,-1600.00
3495,-1400.00
3496,-1800.00
3497,-1600.00
3498,-1600.00
3499,-1800.00
3500,-1600.00
3501,-1600.00
3502,-1600.00
3503,-1600.00
3504,-1800.00
3505,-1400.00
3506,-1800.00
3507,-1600.00
3508,-1600.00
3509,-1800.00
3510,-1400.00
3511,-1600.00
3512,-1600.00
3513,-1400.00
3514,-1800.00
3515,-1600.00
3516,-1600.00
3517,-1600.00
3518,-1600.00
3519,-1600.00
3520,-1400.00
3521,-1600.00
3522,-1600.00
3523,-1400.00
3524,-1600.00
3525,-1200.00
3526,-1600.00
3527,-1400.00
3528,-1600.00
3529,-1600.00
3530,-1400.00
3531,-1600.00
3532,-1400.00
3533,-1400.00
3534,-1600.00
3535,-1200.00
3536,-1600.00
3537,-1400.00
3538,-1400.00
3539,-1600.00
3540,-1200.00
3541,-1600.00
3542,-1400.00
3543,-1400.00
3544,-1400.00
3545,-1200.00
3546,-1400.00
3547,-1400.00
3548,-1200.00
3549,-1600.00
3550,-1200.00
3551,-1400.00
3552,-1400.00
3553,-1400.00
3554,-1400.00
3555,-1200.00
3556,-1400.00
3557,-1200.00
3558,-1200.00
3559,-1600.00
3560,-1200.00
3561,-1400.00
3562,-1400.00
3563,-1200.00
3564,-1400.00
3565,-1200.00
3566,-1400.00
3567,-1200.00
3568,-1400.00
3569,-1400.00
3570,-1000.00
3571,-1400.00
3572,-1200.00
3573,-1200.00
3574,-1400.00
3575,-1000.00
3576,-1400.00
3577,-1200.00
3578,-1200.00
3579,-1400.00
3580,-1200.00
3581,-1400.00
3582,-1200.00
3583,-1000.00
3584,-1400.00
3585,-1000.00
3586,-1200.00
3587,-1200.00
3588,-1200.00
3589,-1400.00
3590,-1000.00
3591,-1200.00
3592,-1200.00
3593,-1200.00
3594,-2400.00
3595,-1000.00
3596,-600.00
3597,600.00
3598,800.00
3599,1000.00
3600,1200.00
3601,1600.00
3602,1400.00
3603,1600.00
3604,1400.00
3605,1600.00
3606,1600.00
3607,1200.00
3608,1400.00
3609,1400.00
3610,1600.00
3611,1600.00
3612,1400.00
3613,1600.00
3614,1600.00
3615,1600.00
3616,1600.00
3617,1400.00
3618,1600.00
3619,1600.00
3620,1400.00
3621,1400.00
3622,1600.00
3623,1600.00
3624,1400.00
3625,1600.00
3626,1400.00
3627,1600.00
3628,1600.00
3629,1400.00
3630,1600.00
3631,1400.00
3632,1400.00
3633,1400.00
3634,1600.00
3635,1600.00
3636,1400.00
3637,1200.00
3638,1600.00
3639,1200.00
3640,1600.00
3641,1600.00
3642,1400.00
3643,1400.00
3644,1400.00
3645,1200.00
3646,1400.00
3647,1600.00
3648,1600.00
3649,1400.00
3650,1400.00
3651,1600.00
3652,1200.00
3653,1400.00
3654,1600.00
3655,1600.00
3656,1400.00
3657,1400.00
3658,1400.00
3659,1600.00
3660,1400.00
3661,1600.00
3662,1400.00
3663,1600.00
3664,1600.00
3665,1600.00
3666,1400.00
3667,1400.00
3668,1600.00
3669,1400.00
3670,1200.00
3671,1400.00
3672,1400.00
3673,1400.00
3674,1600.00
3675,1400.00
3676,1600.00
3677,1200.00
3678,1400.00
3679,1400.00
3680,1600.00
3681,1400.00
3682,1400.00
3683,1400.00
3684,1400.00
3685,1400.00
3686,1400.00
3687,1400.00
3688,1400.00
3689,1400.00
3690,1400.00
3691,1400.00
3692,1400.00
3693,1400.00
3694,1200.00
3695,1400.00
3696,1200.00
3697,1200.00
3698,1400.00
3699,1200.00
3700,1200.00
3701,1400.00
3702,1400.00
3703,1200.00
3704,1200.00
3705,1200.00
3706,1200.00
3707,1200.00
3708,1200.00
3709,1200.00
3710,1200.00
3711,1200.00
3712,1000.00
3713,1200.00
3714,1200.00
3715,1200.00
3716,1200.00
3717,1000.00
3718,1200.00
3719,1000.00
3720,1000.00
3721,1000.00
3722,1000.00
3723,1000.00
3724,1000.00
3725,1000.00
3726,1000.00
3727,1000.00
3728,1000.00
3729,1000.00
3730,1000.00
3731,1000.00
3732,1000.00
3733,1000.00
3734,1000.00
3735,800.00
3736,1000.00
3737,-3800.00
3738,-2200.00
3739,-2000.00
3740,-2000.00
3741,-2000.00
3742,-2000.00
3743,-1800.00
3744,-2000.00
3745,-2000.00
3746,-1800.00
3747,-2200.00
3748,-1800.00
3749,-2000.00
3750,-1800.00
3751,-1800.00
3752,-2000.00
3753,-1800.00
3754,-1800.00
3755,-1800.00
3756,-1800.00
3757,-2000.00
3758,-1800.00
3759,-1800.00
3760,-1800.00
3761,-1800.00
3762,-2000.00
3763,-1800.00
3764,-1800.00
3765,-1800.00
3766,-1800.00
3767,-1800.00
3768,-1800.00
3769,-1800.00
3770,-1800.00
3771,-1600.00
3772,-1800.00
3773,-1600.00
3774,-1800.00
3775,-1800.00
3776,-1800.00
3777,-1800.00
3778,-1600.00
3779,-1800.00
3780,-1600.00
3781,-1600.00
3782,-1800.00
3783,-1600.00
3784,-1800.00
3785,-1800.00
3786,-1600.00
3787,-1800.00
3788,-1600.00
3789,-1800.00
3790,-1800.00
3791,-1600.00
3792,-1800.00
3793,-1400.00
3794,-1600.00
3795,-1600.00
3796,-1600.00
3797,-1800.00
3798,-1600.00
3799,-1800.00
3800,-1600.00
3801,-1600.00
3802,-1800.00
3803,-1400.00
3804,-1600.00
3805,-1600.00
3806,-1600.00
3807,-1600.00
3808,-1600.00
3809,-1600.00
3810,-1600.00
3811,-1400.00
3812,-1800.00
3813,-1400.00
3814,-1600.00
3815,-1600.00
3816,-1600.00
3817,-1600.00
3818,-1400.00
3819,-1600.00
3820,-1400.00
3821,-1400.00
3822,-1600.00
3823,-1200.00
3824,-1400.00
3825,-1600.00
3826,-1200.00
3827,-1600.00
3828,-1400.00
3829,-1600.00
3830,-1600.00
3831,-1400.00
3832,-1600.00
3833,-1200.00
3834,-1400.00
3835,-1400.00
3836,-1400.00
3837,-1600.00
3838,-1200.00
3839,-1600.00
3840,-1400.00
3841,-1400.00
3842,-1600.00
3843,-1400.00
3844,-1600.00
3845,-1400.00
3846,-1200.00
3847,-1400.00
3848,-1400.00
3849,-1400.00
3850,-1400.00
3851,-1200.00
3852,-1400.00
3853,-1200.00
3854,-1400.00
3855,-1200.00
3856,-1200.00
3857,-1600.00
3858,-1200.00
3859,-1400.00
3860,-1200.00
3861,-1400.00
3862,-1600.00
3863,-1200.00
3864,-1400.00
3865,-1400.00
3866,-1200.00
3867,-1400.00
3868,-1000.00
3869,-1400.00
3870,-1200.00
3871,-1200.00
3872,-1400.00
3873,-1000.00
3874,-1400.00
3875,-1400.00
3876,-1200.00
3877,-1400.00
3878,-1200.00
3879,-1400.00
3880,-1200.00
3881,-1200.00
3882,-1400.00
3883,-1200.00
3884,-1400.00
3885,-1200.00
3886,-1200.00
3887,-1400.00
3888,-1200.00
3889,-1400.00
3890,-1200.00
3891,-1200.00
3892,-1200.00
3893,-2800.00
3894,-1400.00
3895,-400.00
3896,200.00
3897,600.00
3898,1000.00
3899,1200.00
3900,1200.00
3901,1400.00
3902,1400.00
3903,1400.00
3904,1600.00
3905,1400.00
3906,1400.00
3907,1400.00
3908,1600.00
3909,1600.00
3910,1600.00
3911,1400.00
3912,1600.00
3913,1400.00
3914,1400.00
3915,1200.00
3916,1600.00
3917,1600.00
3918,1400.00
3919,1600.00
3920,1400.00
3921,1600.00
3922,1400.00
3923,1600.00
3924,1400.00
3925,1600.00
3926,1600.00
3927,1400.00
3928,1600.00
3929,1600.00
3930,1400.00
3931,1600.00
3932,1400.00
3933,1600.00
3934,1400.00
3935,1200.00
3936,1600.00
3937,1400.00
3938,1400.00
3939,1600.00
3940,1600.00
3941,1600.00
3942,1400.00
3943,1600.00
3944,1600.00
3945,1600.00
3946,1400.00
3947,1400.00
3948,1400.00
3949,1400.00
3950,1600.00
3951,1400.00
3952,1400.00
3953,1600.00
3954,1600.00
3955,1600.00
3956,1600.00
3957,1400.00
3958,1600.00
3959,1600.00
3960,1400.00
3961,1600.00
3962,1400.00
3963,1400.00
3964,1400.00
3965,1600.00
3966,1600.00
3967,1400.00
3968,1600.00
3969,1600.00
3970,1600.00
3971,1600.00
3972,1600.00
3973,1600.00
3974,1600.00
3975,1600.00
3976,1600.00
3977,1200.00
3978,1600.00
3979,1600.00
3980,1400.00
3981,1400.00
3982,1600.00
3983,1400.00
3984,1200.00
3985,1400.00
3986,1400.00
3987,1400.00
3988,0.00
3989,-400.00
3990,-400.00
3991,-400.00
3992,0.00
3993,0.00
3994,0.00
3995,-400.00
3996,0.00
3997,0.00
3998,0.00
3999,-400.00
